Vernier Format 2
Untitled.cmbl 11/10/22 09:02 .
Latest
Time	Absorbance at 590.0 nm
t	Abs-590.0
s	

0	1.36707659672
1.20219791667	1.27608395918
2.40439583333	1.2047077429
3.60659375	1.13931872936
4.80879166667	1.08312678477
6.01098958333	1.02823615279
7.2131875	0.943973542565
8.41538541667	0.88143789184
9.61758333333	0.836623005757
10.81978125	0.791055928504
12.0219791667	0.750460144085
13.2241770833	0.701005703535
14.426375	0.656823846383
15.6285729167	0.613363027283
16.8307708333	0.569866862367
18.03296875	0.529169040814
19.2351666667	0.496056192113
20.4373645833	0.463349904502
21.6395625	0.43808768306
22.8417604167	0.410459278226
24.0439583333	0.384470901408
25.24615625	0.361471957883
26.4483541667	0.337920595314
27.6505520833	0.316501999916
28.85275	0.299021101597
30.0549479167	0.28073140268
31.2571458333	0.265502135146
32.45934375	0.248493098629
33.6615416667	0.236313395171
34.8637395833	0.223948658969
36.0659375	0.210595662504
37.2681354167	0.199522385434
38.4703333333	0.190742613922
39.67253125	0.179244942971
40.8747291667	0.170564992082
42.0769270833	0.16208931733
43.279125	0.15340555527
44.4813229167	0.147044688964
45.6835208333	0.139695691767
46.88571875	0.134247292167
48.0879166667	0.12946968426
49.2901145833	0.123595804718
50.4923125	0.118819365555
51.6945104167	0.113409400873
52.8967083333	0.109198981185
54.09890625	0.105548181763
55.3011041667	0.101558578833
56.5033020833	0.0990451673179
57.7055	0.0959218861496
58.9076979167	0.0919023177689
60.1098958333	0.0895100888741
61.31209375	0.087035508348
62.5142916667	0.0851402066892
63.7164895833	0.0832200899753
64.9186875	0.0806060738949
66.1208854167	0.0795079272071
67.3230833333	0.0773224862516
68.52528125	0.076818066207
69.7274791667	0.0741682443491
70.9296770833	0.0739030392519
72.131875	0.0710395817763
73.3340729167	0.0720495454368
74.5362708333	0.0704439157907
75.73846875	0.0690749693936
76.9406666667	0.0692343216839
78.1428645833	0.0668969613286
79.3450625	0.0660901022393
80.5472604167	0.0659256719725
81.7494583333	0.0650342239782
82.95165625	0.0647422420092
84.1538541667	0.064810250058
85.3560520833	0.0636329487553
86.55825	0.0643108408793
87.7604479167	0.0646664830251
88.9626458333	0.0631550001453
90.16484375	0.0637119352019
91.3670416667	0.0621157930227
92.5692395833	0.0626584167654
93.7714375	0.0622756992797
94.9736354167	0.0628361444474
96.1758333333	0.0616974753031
97.37803125	0.0617557564882
98.5802291667	0.0624399886361
99.7824270833	0.0620691905036
100.984625	0.0636112687141
102.186822917	0.0624365910464
103.389020833	0.0629143676749
104.59121875	0.0642001113012
105.793416667	0.0638417519779
106.995614583	0.0637010930743
108.1978125	0.0639719175339
109.400010417	0.0647444156177
110.602208333	0.0639291445477
111.80440625	0.0635784409976
113.006604167	0.0643232493138
114.208802083	0.0646826272743
115.411	0.0658559324813
116.613197917	0.0647965854856
117.815395833	0.0649581033783
119.01759375	0.0658332072985
120.219791667	0.0663861090181
121.421989583	0.0665650572562
122.6241875	0.0663783167807
123.826385417	0.0675837221007
125.028583333	0.0674884038955
126.23078125	0.0686304723394
127.432979167	0.0685828522502
128.635177083	0.0687827663559
129.837375	0.0698474947497
131.039572917	0.0701816034287
132.241770833	0.070829179326
133.44396875	0.0707920230173
134.646166667	0.0713925812408
135.848364583	0.0721067060205
137.0505625	0.0722223133976
138.252760417	0.0726708200585
139.454958333	0.0734687826652
140.65715625	0.0735014160617
141.859354167	0.0754737875331
143.061552083	0.0750659400116
144.26375	0.0751632541579
145.465947917	0.0758804255159
146.668145833	0.0766616521102
147.87034375	0.077535099532
149.072541667	0.0779782450705
150.274739583	0.0779254278267
151.4769375	0.0803935617751
152.679135417	0.0800611567163
153.881333333	0.0804737245873
155.08353125	0.0810178705021
156.285729167	0.0820671696939
157.487927083	0.0812929412348
158.690125	0.082785484454
159.892322917	0.0822905252933
161.094520833	0.0838144090032
162.29671875	0.0839753684672
163.498916667	0.0841188544025
164.701114583	0.0850041911795
165.9033125	0.0855130033664
167.105510417	0.0860491541041
168.307708333	0.0862996932497
169.50990625	0.0865915186372
170.712104167	0.0871531976012
171.914302083	0.0883059483817
173.1165	0.0893628391701
174.318697917	0.0882803785588
175.520895833	0.0885994535023
176.72309375	0.088899394316
177.925291667	0.08990936041
179.127489583	0.0895804445264
180.3296875	0.0903847549436
181.531885417	0.091035479475
182.734083333	0.0920117448912
183.93628125	0.0914394585082
185.138479167	0.0924924266397
186.340677083	0.0927526732274
187.542875	0.0932003574607
188.745072917	0.0932636868563
189.947270833	0.0937138900496
191.14946875	0.0944022058008
192.351666667	0.0959782728573
193.553864583	0.0945096043416
194.7560625	0.0956310603676
195.958260417	0.09516421215
197.160458333	0.0962763431629
198.36265625	0.095971933158
199.564854167	0.0969811095987
200.767052083	0.0966675160671
201.96925	0.0980442638063
203.171447917	0.0971098889348
204.373645833	0.0975908911654
205.57584375	0.0989312662311
206.778041667	0.0993097077859
207.980239583	0.0985501332763
209.1824375	0.0996780469838
210.384635417	0.0996080553163
211.586833333	0.0999220965426
212.78903125	0.0995717179375
213.991229167	0.100272758053
215.193427083	0.101026239508
216.395625	0.102137934877
217.597822917	0.102375921311
218.800020833	0.102514778753
220.00221875	0.102287549817
221.204416667	0.103466978034
222.406614583	0.103645578247
223.6088125	0.10368769242
224.811010417	0.103332567003
226.013208333	0.104044128239
227.21540625	0.103343766334
228.417604167	0.104280100815
229.619802083	0.10459175384
230.822	0.104947910819
232.024197917	0.104716341516
233.226395833	0.1051465458
234.42859375	0.105532491215
235.630791667	0.105851530061
236.832989583	0.105670996942
238.0351875	0.106254160486
239.237385417	0.106406909357
240.439583333	0.106880875212
241.64178125	0.106500225369
242.843979167	0.105989113234
244.046177083	0.105775075874
245.248375	0.105765178771
246.450572917	0.106299945337
247.652770833	0.106162605262
248.85496875	0.106378884288
250.057166667	0.106347101946
251.259364583	0.106119567311
252.4615625	0.106400757358
253.663760417	0.106018479059
254.865958333	0.105631078199
256.06815625	0.10718344417
257.270354167	0.107286858816
258.472552083	0.106256552112
259.67475	0.107469435497
260.876947917	0.107175226844
262.079145833	0.106607580672
263.28134375	0.10685247741
264.483541667	0.107271790249
265.685739583	0.107307065215
266.8879375	0.106838108146
268.090135417	0.107105043517
269.292333333	0.10603930951
270.49453125	0.106716330613
271.696729167	0.107113259516
272.898927083	0.10800081739
274.101125	0.108311376749
275.303322917	0.10773333104
276.505520833	0.107781672145
277.70771875	0.107034186982
278.909916667	0.108387935435
280.112114583	0.108022429249
281.3143125	0.10675156049
282.516510417	0.108278079648
283.718708333	0.108886068001
284.92090625	0.108587463405
286.123104167	0.107745672938
287.325302083	0.108597081526
288.5275	0.108866819167
289.729697917	0.108314809585
290.931895833	0.108567540831
292.13409375	0.108752031337
293.336291667	0.108726259797
294.538489583	0.10840647634
295.7406875	0.109557561077
296.942885417	0.10927466438
298.145083333	0.109574086288
299.34728125	0.108745502402
